Wavelength (nm),n,k
250,2.33851,0.57355
260,2.35447,0.50038
270,2.36184,0.42895
280,2.36103,0.36014
290,2.3525,0.29479
300,2.3368,0.23372
310,2.31452,0.17778
320,2.28635,0.12782
330,2.25314,0.08472
340,2.21593,0.04943
350,2.17614,0.02298
360,2.13584,0.00646
370,2.0989,0.00101
370.3858,2.09768,0.00101
371.96622,2.0929,0.00102
373.54666,2.08836,0.00104
375.12717,2.08404,0.00105
376.70773,2.07989,0.00107
378.2884,2.07591,0.00109
379.86908,2.07206,0.0011
380,2.07174,0.0011
381.4498,2.06834,0.00112
383.03058,2.06474,0.00113
384.61145,2.06125,0.00115
386.19235,2.05787,0.00117
387.77332,2.05458,0.00118
389.3543,2.05138,0.0012
390,2.0501,0.0012
390.93536,2.04826,0.00121
392.51648,2.04523,0.00123
394.09763,2.04227,0.00125
395.67886,2.03938,0.00126
397.2601,2.03656,0.00128
398.84143,2.03381,0.0013
400,2.03183,0.00131
400.4228,2.03112,0.00132
402.00418,2.02849,0.00133
403.58563,2.02591,0.00135
405.1671,2.0234,0.00137
406.74866,2.02093,0.00138
408.33023,2.01851,0.0014
409.91187,2.01614,0.00142
410,2.01601,0.00142
411.4935,2.01382,0.00144
413.07526,2.01155,0.00146
414.65698,2.00932,0.00148
416.23877,2.00712,0.00149
417.82062,2.00497,0.00151
419.4025,2.00286,0.00153
420,2.00207,0.00154
420.98438,2.00079,0.00155
422.56635,1.99875,0.00157
424.14835,1.99675,0.00159
425.73038,1.99478,0.00161
427.3124,1.99285,0.00163
428.89453,1.99094,0.00165
430,1.98963,0.00166
430.47665,1.98907,0.00167
432.05878,1.98723,0.00169
433.64102,1.98542,0.00171
435.22324,1.98363,0.00173
436.8055,1.98188,0.00175
438.3878,1.98015,0.00177
439.97012,1.97845,0.00179
440,1.97841,0.00179
441.5525,1.97677,0.00181
443.13486,1.97512,0.00183
444.7173,1.97349,0.00185
446.2997,1.97188,0.00187
447.88217,1.9703,0.0019
449.4647,1.96874,0.00192
450,1.96822,0.00192
451.0472,1.9672,0.00194
452.6298,1.96568,0.00196
454.21234,1.96419,0.00198
455.79492,1.96271,0.002
457.3776,1.96125,0.00203
458.9602,1.95981,0.00205
460,1.95888,0.00206
460.54288,1.95839,0.00207
462.12558,1.95699,0.0021
463.7083,1.95561,0.00212
465.29102,1.95424,0.00214
466.87378,1.95289,0.00216
468.45654,1.95156,0.00219
470,1.95028,0.00221
470.03937,1.95025,0.00221
471.62213,1.94894,0.00224
473.205,1.94766,0.00226
474.78778,1.94639,0.00228
476.37067,1.94513,0.00231
477.95352,1.94389,0.00233
479.53644,1.94267,0.00236
480,1.94231,0.00236
481.11932,1.94145,0.00238
482.70224,1.94025,0.00241
484.28516,1.93907,0.00243
485.8681,1.9379,0.00246
487.45102,1.93673,0.00248
489.034,1.93559,0.00251
490,1.93489,0.00252
490.617,1.93445,0.00253
492.19995,1.93333,0.00256
493.78296,1.93222,0.00259
495.3659,1.93111,0.00261
496.9489,1.93003,0.00264
498.53192,1.92895,0.00266
500,1.92796,0.00269
500.11493,1.92788,0.00269
501.698,1.92682,0.00272
503.281,1.92578,0.00275
504.86407,1.92474,0.00277
506.44708,1.92371,0.0028
508.03012,1.9227,0.00283
509.61313,1.92169,0.00286
510,1.92144,0.00286
511.1962,1.92069,0.00288
512.7792,1.9197,0.00291
514.36224,1.91872,0.00294
515.9453,1.91775,0.00297
517.5283,1.91679,0.003
519.1114,1.91584,0.00303
520,1.9153,0.00304
520.6944,1.91489,0.00306
522.27747,1.91395,0.00309
523.8605,1.91302,0.00312
525.4435,1.9121,0.00314
527.0265,1.91119,0.00317
528.6095,1.91029,0.0032
530,1.9095,0.00323
530.1925,1.90939,0.00324
531.7755,1.9085,0.00327
533.3585,1.90761,0.0033
534.94147,1.90674,0.00333
536.5245,1.90587,0.00336
538.1074,1.90501,0.00339
539.69037,1.90415,0.00342
540,1.90398,0.00343
541.2733,1.9033,0.00345
542.85626,1.90246,0.00348
544.43915,1.90162,0.00351
546.0221,1.90079,0.00355
547.6049,1.89997,0.00358
549.1878,1.89915,0.00361
550,1.89874,0.00363
550.7706,1.89834,0.00364
552.3535,1.89754,0.00368
553.93634,1.89674,0.00371
555.51917,1.89594,0.00374
557.1019,1.89515,0.00378
558.6847,1.89437,0.00381
560,1.89372,0.00384
560.26746,1.89359,0.00384
561.8502,1.89282,0.00388
563.433,1.89205,0.00391
565.0156,1.89129,0.00395
566.59827,1.89054,0.00398
568.18097,1.88978,0.00402
569.76355,1.88904,0.00405
570,1.88893,0.00406
571.3462,1.88829,0.00409
572.9288,1.88756,0.00412
574.51135,1.88683,0.00416
576.0939,1.8861,0.00419
577.6764,1.88537,0.00423
579.25885,1.88465,0.00427
580,1.88432,0.00428
580.8413,1.88394,0.0043
582.4237,1.88323,0.00434
584.0061,1.88252,0.00438
585.5885,1.88182,0.00441
587.1708,1.88112,0.00445
588.7531,1.88043,0.00449
590,1.87988,0.00452
590.3354,1.87974,0.00453
591.9176,1.87905,0.00456
593.4999,1.87837,0.0046
595.08203,1.87769,0.00464
596.6642,1.87702,0.00468
598.2463,1.87634,0.00472
599.8283,1.87568,0.00475
600,1.87561,0.00476
601.4104,1.87501,0.00479
602.9924,1.87435,0.00483
604.57434,1.8737,0.00487
606.15625,1.87304,0.00491
607.73816,1.87239,0.00495
609.32,1.87174,0.00499
610,1.87147,0.00501
610.9018,1.8711,0.00503
612.4835,1.87046,0.00507
614.0653,1.86982,0.00511
615.647,1.86919,0.00516
617.22864,1.86856,0.0052
618.8102,1.86793,0.00524
620,1.86746,0.00527
620.3918,1.8673,0.00528
621.97327,1.86668,0.00532
623.55475,1.86606,0.00536
625.13617,1.86544,0.00541
626.7175,1.86483,0.00545
628.2989,1.86422,0.00549
629.8801,1.86361,0.00554
630,1.86356,0.00554
631.46136,1.863,0.00558
633.0426,1.8624,0.00562
634.62366,1.8618,0.00566
636.2048,1.8612,0.00571
637.78577,1.86061,0.00575
639.3668,1.86001,0.0058
640,1.85978,0.00581
640.9477,1.85942,0.00584
642.5286,1.85883,0.00589
644.10944,1.85825,0.00593
645.6902,1.85766,0.00598
647.2709,1.85708,0.00602
648.85156,1.8565,0.00607
650,1.85608,0.0061
650.4322,1.85593,0.00611
652.0127,1.85535,0.00616
653.5932,1.85478,0.00621
655.17365,1.85421,0.00625
656.754,1.85364,0.0063
658.33435,1.85307,0.00635
659.91455,1.85251,0.00639
660,1.85248,0.0064
661.49475,1.85195,0.00644
663.0749,1.85139,0.00649
664.6549,1.85083,0.00654
666.235,1.85027,0.00659
667.8149,1.84972,0.00664
669.3948,1.84916,0.00668
670,1.84895,0.0067
670.9746,1.84861,0.00673
672.5543,1.84807,0.00678
674.13403,1.84752,0.00683
675.7137,1.84697,0.00688
677.2932,1.84643,0.00693
678.8727,1.84589,0.00698
680,1.8455,0.00702
680.4521,1.84535,0.00703
682.03143,1.84481,0.00708
683.6107,1.84427,0.00713
685.18994,1.84373,0.00718
686.7691,1.8432,0.00724
688.34814,1.84267,0.00729
689.9271,1.84214,0.00734
690,1.84211,0.00734
691.50604,1.84161,0.00739
693.0849,1.84108,0.00744
694.6637,1.84055,0.00749
696.2424,1.84003,0.00755
697.821,1.8395,0.0076
699.39954,1.83898,0.00765
700,1.83878,0.00768
700.97797,1.83846,0.00771
702.5564,1.83794,0.00776
704.1347,1.83742,0.00782
705.71295,1.83691,0.00787
707.29114,1.83639,0.00792
708.8692,1.83588,0.00798
710,1.83551,0.00802
710.44714,1.83536,0.00803
712.0251,1.83485,0.00809
713.6029,1.83434,0.00814
715.18066,1.83383,0.0082
716.75836,1.83332,0.00826
718.33594,1.83282,0.00831
719.91345,1.83231,0.00837
720,1.83228,0.00837
721.49084,1.83181,0.00843
723.0682,1.8313,0.00848
724.6454,1.8308,0.00854
726.22253,1.8303,0.0086
727.7996,1.8298,0.00866
729.3766,1.8293,0.00872
730,1.8291,0.00874
730.9535,1.8288,0.00877
732.53033,1.8283,0.00883
734.10706,1.82781,0.00889
735.68365,1.82731,0.00895
737.26013,1.82681,0.00901
738.83655,1.82632,0.00907
740,1.82596,0.00911
740.41296,1.82583,0.00913
741.9892,1.82534,0.00919
743.5653,1.82485,0.00925
745.1414,1.82436,0.00931
746.7174,1.82387,0.00937
748.2933,1.82338,0.00943
749.869,1.82289,0.00949
750,1.82285,0.0095
751.4447,1.82241,0.00955
753.02026,1.82192,0.00962
754.59576,1.82144,0.00968
756.17114,1.82095,0.00974
757.7464,1.82047,0.0098
759.3216,1.81999,0.00987
760,1.81978,0.00989
760.89667,1.81951,0.00993
762.4716,1.81902,0.01
764.0465,1.81854,0.01006
765.6213,1.81807,0.01012
767.1959,1.81759,0.01019
768.7705,1.81711,0.01025
770,1.81674,0.0103
770.345,1.81663,0.01032
771.9193,1.81616,0.01038
773.4936,1.81568,0.01045
775.06775,1.8152,0.01051
776.6417,1.81473,0.01058
778.2157,1.81426,0.01065
779.7895,1.81378,0.01071
780,1.81372,0.01072
781.36316,1.81331,0.01078
782.9368,1.81284,0.01085
784.5103,1.81237,0.01091
786.0836,1.8119,0.01098
787.6569,1.81142,0.01105
789.2301,1.81095,0.01112
790,1.81073,0.01115
790.8031,1.81049,0.01119
792.37604,1.81002,0.01125
793.94885,1.80955,0.01133
795.52155,1.80908,0.01139
797.0941,1.80861,0.01146
798.66656,1.80815,0.01153
800,1.80775,0.01159
800.2389,1.80768,0.0116
801.81116,1.80722,0.01167
803.38324,1.80675,0.01175
804.9552,1.80628,0.01182
806.5271,1.80582,0.01189
808.0988,1.80536,0.01196
809.6705,1.80489,0.01203
810,1.8048,0.01205
811.242,1.80443,0.0121
812.81335,1.80397,0.01218
814.38464,1.80351,0.01225
815.95575,1.80304,0.01232
817.52673,1.80258,0.0124
819.09766,1.80212,0.01247
820,1.80186,0.01251
820.66846,1.80166,0.01254
822.2391,1.8012,0.01262
823.8096,1.80074,0.01269
825.38,1.80028,0.01277
826.9502,1.79982,0.01284
828.5203,1.79936,0.01292
830,1.79893,0.01299
830.09033,1.79891,0.01299
831.66016,1.79845,0.01307
833.22986,1.79799,0.01315
834.7995,1.79753,0.01322
836.369,1.79708,0.0133
837.93835,1.79662,0.01338
839.5075,1.79616,0.01345
840,1.79602,0.01348
841.07666,1.7957,0.01353
842.6456,1.79525,0.01361
844.21436,1.79479,0.01369
845.783,1.79434,0.01377
847.35156,1.79388,0.01385
848.9199,1.79343,0.01393
850,1.79311,0.01398
850.48816,1.79297,0.01401
852.05634,1.79252,0.01409
853.6243,1.79206,0.01417
855.1922,1.79161,0.01425
856.7599,1.79116,0.01433
858.32745,1.7907,0.01441
859.89484,1.79025,0.01449
860,1.79022,0.01449
861.4621,1.7898,0.01457
863.0293,1.78934,0.01465
864.5963,1.78889,0.01474
866.1631,1.78844,0.01482
867.7298,1.78798,0.0149
869.2964,1.78753,0.01498
870,1.78733,0.01502
870.8628,1.78708,0.01507
872.429,1.78663,0.01515
873.9951,1.78618,0.01524
875.56116,1.78573,0.01532
877.12695,1.78527,0.0154
878.6927,1.78482,0.01549
880,1.78445,0.01556
880.2581,1.78437,0.01558
881.82355,1.78392,0.01566
883.3888,1.78347,0.01575
884.9538,1.78302,0.01583
886.51874,1.78257,0.01592
888.0835,1.78212,0.01601
889.64813,1.78167,0.01609
890,1.78157,0.01611
891.2126,1.78122,0.01618
892.77686,1.78077,0.01627
894.341,1.78032,0.01636
895.90497,1.77987,0.01645
897.4689,1.77942,0.01654
899.03253,1.77897,0.01662
900,1.77869,0.01668
900.59607,1.77852,0.01671
902.15936,1.77807,0.0168
903.72266,1.77762,0.01689
905.28564,1.77717,0.01698
906.8485,1.77672,0.01708
908.41125,1.77627,0.01717
909.9738,1.77582,0.01726
910,1.77581,0.01726
911.53625,1.77537,0.01735
913.09845,1.77492,0.01744
914.6605,1.77447,0.01753
916.2225,1.77402,0.01763
917.7842,1.77357,0.01772
919.3458,1.77312,0.01781
920,1.77293,0.01785
920.9072,1.77267,0.01791
922.46844,1.77222,0.018
924.0295,1.77177,0.0181
925.59045,1.77133,0.01819
927.1512,1.77088,0.01828
928.71173,1.77043,0.01838
930,1.77006,0.01846
930.27216,1.76998,0.01848
931.83234,1.76953,0.01857
933.3924,1.76908,0.01867
934.95233,1.76863,0.01877
936.512,1.76818,0.01886
938.0716,1.76773,0.01896
939.631,1.76728,0.01906
940,1.76718,0.01908
941.1901,1.76683,0.01915
942.74915,1.76638,0.01925
944.308,1.76594,0.01935
945.8667,1.76549,0.01945
947.4252,1.76504,0.01955
948.9835,1.76459,0.01965
950,1.76429,0.01972
950.5416,1.76414,0.01975
952.0995,1.76369,0.01985
953.65735,1.76324,0.01995
955.21497,1.76279,0.02005
956.77234,1.76234,0.02015
958.3296,1.76189,0.02025
959.8866,1.76144,0.02036
960,1.7614,0.02037
961.44354,1.76099,0.02046
963.0002,1.76054,0.02056
964.55676,1.76009,0.02066
966.113,1.75964,0.02077
967.6691,1.75919,0.02087
969.2251,1.75874,0.02098
970,1.75851,0.02103
970.7809,1.75829,0.02108
972.3364,1.75784,0.02119
973.8918,1.75739,0.02129
975.4471,1.75693,0.0214
977.0021,1.75648,0.0215
978.5568,1.75603,0.02161
980,1.75561,0.02171
980.1115,1.75558,0.02172
981.6659,1.75513,0.02182
983.2202,1.75468,0.02193
984.77423,1.75423,0.02204
986.3281,1.75378,0.02214
987.8817,1.75333,0.02225
989.43524,1.75287,0.02236
990,1.75271,0.0224
990.9886,1.75242,0.02247
992.5416,1.75197,0.02258
994.09454,1.75152,0.02269
995.6473,1.75107,0.0228
997.1997,1.75061,0.02291
998.7521,1.75016,0.02302
1000,1.7498,0.02311
1010,1.74688,0.02383
1013.13947,1.74596,0.02406
1016.5212,1.74497,0.02431
1019.90344,1.74398,0.02457
1020,1.74395,0.02457
1023.28613,1.74298,0.02482
1026.6693,1.74199,0.02507
1030,1.74101,0.02533
1030.0531,1.74099,0.02533
1033.4373,1.74,0.02559
1036.822,1.739,0.02585
1040,1.73806,0.0261
1040.2073,1.738,0.02611
1043.5931,1.737,0.02638
1046.9794,1.736,0.02665
1050,1.7351,0.02689
1050.3662,1.73499,0.02692
1053.7534,1.73399,0.02719
1057.1412,1.73298,0.02746
1060,1.73213,0.02769
1060.5295,1.73198,0.02773
1063.9183,1.73097,0.02801
1067.3077,1.72996,0.02829
1070,1.72915,0.02851
1070.6975,1.72894,0.02857
1074.0878,1.72793,0.02885
1077.4786,1.72692,0.02913
1080,1.72616,0.02935
1080.87,1.7259,0.02942
1084.2618,1.72488,0.02971
1087.6542,1.72386,0.03
1090,1.72316,0.0302
1091.0471,1.72284,0.03029
1094.4404,1.72182,0.03058
1097.8342,1.72079,0.03088
1100,1.72014,0.03107
1101.2288,1.71977,0.03118
1104.6235,1.71874,0.03148
1108.0189,1.71771,0.03178
1110,1.71711,0.03196
1111.4148,1.71668,0.03208
1114.8113,1.71564,0.03239
1118.2081,1.71461,0.0327
1120,1.71406,0.03286
1121.6056,1.71357,0.03301
1125.0035,1.71253,0.03332
1128.402,1.71149,0.03364
1130,1.711,0.03379
1131.8009,1.71045,0.03395
1135.2003,1.70941,0.03427
1138.6002,1.70836,0.03459
1140,1.70793,0.03473
1142.0007,1.70731,0.03492
1145.4016,1.70626,0.03524
1148.8031,1.70521,0.03557
1150,1.70484,0.03569
1152.2051,1.70416,0.0359
1155.6075,1.7031,0.03623
1159.0105,1.70205,0.03657
1160,1.70174,0.03666
1162.4141,1.70099,0.0369
1165.818,1.69993,0.03724
1169.2225,1.69887,0.03758
1170,1.69862,0.03766
1172.6276,1.6978,0.03792
1176.033,1.69673,0.03827
1179.4391,1.69567,0.03862
1180,1.69549,0.03867
1182.8456,1.6946,0.03897
1186.2527,1.69352,0.03932
1189.6602,1.69245,0.03967
1190,1.69234,0.03971
1193.0681,1.69137,0.04003
1196.4768,1.69029,0.04039
1199.8857,1.68921,0.04075
1200,1.68918,0.04076
1203.2953,1.68813,0.04111
1206.7053,1.68705,0.04148
1210,1.686,0.04183
1210.116,1.68596,0.04185
1213.5271,1.68487,0.04222
1216.9386,1.68378,0.04259
1220,1.6828,0.04293
1220.3507,1.68269,0.04297
1223.7633,1.68159,0.04334
1227.1764,1.6805,0.04372
1230,1.67959,0.04404
1230.59,1.6794,0.04411
1234.0042,1.67829,0.04449
1237.4187,1.67719,0.04488
1240,1.67636,0.04517
1240.8337,1.67609,0.04527
1244.2494,1.67498,0.04566
1247.6655,1.67387,0.04605
1250,1.67311,0.04633
1251.0823,1.67276,0.04645
1254.4993,1.67164,0.04685
1257.917,1.67053,0.04725
1260,1.66984,0.0475
1261.3352,1.66941,0.04766
1264.7538,1.66829,0.04807
1268.173,1.66716,0.04847
1270,1.66656,0.0487
1271.5925,1.66604,0.04889
1275.0128,1.66491,0.0493
1278.4333,1.66378,0.04972
1280,1.66326,0.04991
1281.8546,1.66265,0.05014
1285.2762,1.66152,0.05056
1288.6985,1.66038,0.05099
1290,1.65995,0.05115
1292.1212,1.65924,0.05141
1295.5444,1.6581,0.05185
1298.968,1.65696,0.05228
1300,1.65661,0.05241
1302.3923,1.65581,0.05271
1305.817,1.65466,0.05315
1309.2422,1.65351,0.05359
1310,1.65326,0.05369
1312.668,1.65236,0.05404
1316.0941,1.65121,0.05448
1319.5209,1.65005,0.05493
1320,1.64989,0.05499
1322.9481,1.64889,0.05538
1326.3759,1.64773,0.05584
1329.8041,1.64656,0.05629
1330,1.6465,0.05632
1333.2329,1.6454,0.05675
1336.6621,1.64423,0.05722
1340,1.64309,0.05767
1340.0919,1.64306,0.05768
1343.5222,1.64189,0.05815
1346.9529,1.64071,0.05862
1350,1.63966,0.05904
1350.3843,1.63953,0.05909
1353.816,1.63835,0.05957
1357.2483,1.63717,0.06005
1360,1.63622,0.06044
1360.681,1.63598,0.06053
1364.1144,1.6348,0.06102
1367.5481,1.63361,0.0615
1370,1.63276,0.06185
1370.9825,1.63241,0.062
1374.4172,1.63122,0.06249
1377.8527,1.63002,0.06298
1380,1.62927,0.0633
1381.2883,1.62882,0.06348
1384.7247,1.62762,0.06399
1388.1615,1.62642,0.06449
1390,1.62577,0.06476
1391.5989,1.62521,0.065
1395.0367,1.624,0.06551
1398.4751,1.62279,0.06603
1400,1.62225,0.06625
1401.9138,1.62158,0.06654
1405.3533,1.62036,0.06706
1408.7931,1.61914,0.06759
1410,1.61872,0.06777
1412.2335,1.61792,0.06811
1415.6743,1.6167,0.06864
1419.1157,1.61547,0.06917
1420,1.61516,0.06931
1422.5575,1.61425,0.06971
1425.9999,1.61302,0.07025
1429.4427,1.61178,0.07079
1430,1.61158,0.07088
1432.8861,1.61055,0.07133
1436.3301,1.60931,0.07188
1439.7744,1.60807,0.07243
1440,1.60799,0.07247
1443.2194,1.60683,0.07299
1446.6648,1.60558,0.07354
1450,1.60437,0.07408
1450.1106,1.60433,0.0741
1453.557,1.60308,0.07467
1457.0039,1.60183,0.07523
1460,1.60074,0.07573
1460.4514,1.60058,0.0758
1463.8992,1.59932,0.07638
1467.3477,1.59806,0.07695
1470,1.59709,0.0774
1470.7966,1.5968,0.07753
1474.246,1.59553,0.07812
1477.696,1.59426,0.0787
1480,1.59342,0.07909
1481.1464,1.59299,0.07929
1484.5974,1.59172,0.07988
1488.0487,1.59045,0.08048
1490,1.58973,0.08082
1491.5007,1.58917,0.08108
1494.9531,1.58789,0.08168
1498.406,1.58661,0.08229
1500,1.58602,0.08257
1501.8596,1.58532,0.0829
1505.3135,1.58404,0.08351
1508.768,1.58275,0.08413
1510,1.58229,0.08435
1512.2229,1.58146,0.08475
1515.6785,1.58016,0.08537
1519.1344,1.57886,0.086
1520,1.57854,0.08616
1522.5908,1.57756,0.08663
1526.0479,1.57626,0.08726
1529.5052,1.57496,0.0879
1530,1.57477,0.08799
1532.9633,1.57365,0.08854
1536.4218,1.57234,0.08919
1539.8807,1.57103,0.08983
1540,1.57098,0.08986
1543.3402,1.56972,0.09048
1546.8003,1.5684,0.09114
1550,1.56718,0.09175
1550.2607,1.56708,0.0918
1553.7218,1.56576,0.09246
1557.1833,1.56443,0.09313
1560,1.56335,0.09367
1560.6453,1.56311,0.0938
1564.1078,1.56178,0.09447
1567.5708,1.56045,0.09515
1570,1.55951,0.09562
1571.0344,1.55911,0.09583
1574.4983,1.55778,0.09651
1577.9629,1.55644,0.0972
1580,1.55565,0.0976
1581.428,1.5551,0.09789
1584.8934,1.55375,0.09859
1588.3595,1.55241,0.09928
1590,1.55177,0.09962
1591.826,1.55106,0.09999
1595.2931,1.5497,0.1007
1598.7606,1.54835,0.10141
1600,1.54787,0.10166
1602.2288,1.54699,0.10212
1605.6973,1.54563,0.10284
1609.1663,1.54427,0.10356
1610,1.54395,0.10373
1612.6359,1.54291,0.10429
1616.1058,1.54154,0.10502
1619.5764,1.54018,0.10575
1620,1.54001,0.10584
1623.0476,1.5388,0.10649
1626.519,1.53743,0.10723
1629.9911,1.53605,0.10798
1630,1.53605,0.10798
1633.4636,1.53468,0.10873
1636.9368,1.5333,0.10948
1640,1.53208,0.11015
1640.4104,1.53191,0.11024
1643.8844,1.53053,0.111
1647.359,1.52914,0.11177
1650,1.52808,0.11235
1650.8342,1.52775,0.11254
1654.3098,1.52636,0.11331
1657.7858,1.52496,0.11409
1660,1.52407,0.11459
1661.2623,1.52356,0.11487
1664.7395,1.52216,0.11566
1668.217,1.52076,0.11645
1670,1.52004,0.11686
1671.6951,1.51935,0.11724
1675.1738,1.51795,0.11804
1678.653,1.51654,0.11885
1680,1.51599,0.11916
1682.1324,1.51512,0.11965
1685.6125,1.51371,0.12047
1689.0931,1.51229,0.12128
1690,1.51192,0.1215
1700,1.50784,0.12387
1710,1.50373,0.12627
1720,1.49961,0.12872
1730,1.49547,0.13119
1740,1.49132,0.13371
1750,1.48714,0.13626
1760,1.48295,0.13884
1770,1.47875,0.14147
1780,1.47452,0.14413
1790,1.47028,0.14683
1800,1.46603,0.14957
1810,1.46175,0.15235
1820,1.45746,0.15517
1830,1.45316,0.15803
1840,1.44884,0.16093
1850,1.4445,0.16387
1860,1.44015,0.16685
1870,1.43579,0.16987
1880,1.43141,0.17294
1890,1.42701,0.17605
1900,1.42261,0.1792
1910,1.41819,0.1824
1920,1.41375,0.18564
1930,1.40931,0.18893
1940,1.40485,0.19226
1950,1.40038,0.19563
1960,1.39589,0.19906
1970,1.3914,0.20253
1980,1.3869,0.20605
1990,1.38238,0.20961
2000,1.37786,0.21323
